% CrIS April 2009 fast model
% by Scott Hannon/Larrabee Strow @ UMBC
%
% RMS and bias errors for the 48 training
% profiles at 5 angles each.
%    dBT = BT_truth - BT_fastmodel
%    RMS = sqrt(mean(dBT.^2))
%    bias = mean(dBT)
% No reflected thermal or solar radiance
% contributions. Standard/default trace gas
% amounts. 
%
% Units:
%    frequency in wavenumber
%    mean BT, RMS, and bias in Kelvin
%
% ID     freq    mean BT     RMS        bias
%----  --------  -------   ---------  ----------
    1   650.000  224.669   2.046E-02   9.842E-04
    2   650.625  223.913   1.904E-02   9.825E-04
    3   651.250  220.998   1.309E-02  -6.078E-04
    4   651.875  223.136   1.462E-02   1.357E-04
    5   652.500  221.694   1.342E-02  -2.785E-04
    6   653.125  222.229   1.550E-02  -4.850E-04
    7   653.750  222.799   1.314E-02   2.592E-04
    8   654.375  221.019   1.352E-02  -1.519E-03
    9   655.000  223.425   1.271E-02   1.411E-04
   10   655.625  221.640   1.288E-02  -1.503E-03
   11   656.250  222.872   1.343E-02   1.618E-03
   12   656.875  222.912   1.541E-02   2.728E-03
   13   657.500  221.631   1.235E-02   1.311E-03
   14   658.125  223.406   1.555E-02  -2.275E-03
   15   658.750  221.095   1.158E-02   6.022E-04
   16   659.375  222.571   1.583E-02   1.747E-03
   17   660.000  222.238   1.318E-02   1.942E-03
   18   660.625  221.183   1.426E-02  -7.158E-04
   19   661.250  222.720   1.298E-02  -6.742E-04
   20   661.875  222.766   1.671E-02  -3.124E-03
   21   662.500  228.899   2.035E-02   3.401E-04
   22   663.125  228.753   1.990E-02   3.016E-05
   23   663.750  224.422   1.900E-02   3.021E-03
   24   664.375  224.521   1.694E-02   2.771E-03
   25   665.000  224.676   1.486E-02   7.906E-05
   26   665.625  222.901   1.409E-02   2.909E-04
   27   666.250  220.899   1.014E-02   1.635E-03
   28   666.875  227.298   1.887E-02   4.046E-03
   29   667.500  241.721   2.229E-02  -3.961E-03
   30   668.125  247.012   2.621E-02  -7.407E-03
   31   668.750  241.865   3.824E-02  -1.550E-03
   32   669.375  235.566   3.449E-02  -2.960E-03
   33   670.000  229.278   3.158E-02   9.174E-04
   34   670.625  224.583   2.913E-02  -6.854E-03
   35   671.250  225.245   2.361E-02   1.031E-03
   36   671.875  222.520   2.047E-02  -3.656E-03
   37   672.500  223.417   1.819E-02   4.106E-03
   38   673.125  224.367   1.841E-02  -7.138E-04
   39   673.750  221.919   1.248E-02   8.173E-04
   40   674.375  224.657   1.731E-02  -3.776E-03
   41   675.000  222.355   1.358E-02   6.928E-04
   42   675.625  223.216   1.538E-02  -1.180E-03
   43   676.250  224.397   1.569E-02   1.220E-03
   44   676.875  221.658   1.304E-02  -9.296E-04
   45   677.500  224.674   1.468E-02  -8.026E-04
   46   678.125  222.636   1.480E-02  -5.081E-04
   47   678.750  223.160   1.780E-02   5.382E-03
   48   679.375  224.879   2.702E-02   8.863E-03
   49   680.000  221.557   1.510E-02   3.460E-03
   50   680.625  224.426   1.644E-02  -3.082E-03
   51   681.250  222.631   1.431E-02  -1.016E-04
   52   681.875  222.023   1.583E-02  -4.994E-04
   53   682.500  224.158   1.585E-02  -2.040E-04
   54   683.125  220.776   1.538E-02  -9.192E-04
   55   683.750  223.197   1.431E-02  -1.587E-03
   56   684.375  222.279   1.541E-02  -8.373E-04
   57   685.000  220.743   1.298E-02  -2.164E-03
   58   685.625  223.302   1.520E-02   1.999E-03
   59   686.250  220.184   1.329E-02  -4.807E-03
   60   686.875  221.394   1.342E-02   1.581E-03
   61   687.500  221.428   1.242E-02  -3.393E-03
   62   688.125  219.726   1.820E-02   2.195E-03
   63   688.750  223.216   3.020E-02  -2.476E-04
   64   689.375  221.524   3.407E-02   3.802E-03
   65   690.000  221.184   1.890E-02  -4.182E-04
   66   690.625  221.522   1.576E-02   1.362E-03
   67   691.250  219.105   1.271E-02  -1.376E-03
   68   691.875  221.219   1.436E-02   4.415E-04
   69   692.500  220.150   1.451E-02  -1.848E-03
   70   693.125  219.297   1.448E-02  -2.233E-03
   71   693.750  220.527   1.529E-02  -2.509E-03
   72   694.375  218.808   1.614E-02  -3.747E-03
   73   695.000  219.702   1.208E-02   4.556E-04
   74   695.625  219.949   1.690E-02  -5.970E-04
   75   696.250  218.965   1.554E-02  -3.925E-03
   76   696.875  220.042   1.754E-02  -1.578E-03
   77   697.500  219.723   1.930E-02  -3.393E-03
   78   698.125  219.457   1.638E-02  -7.524E-04
   79   698.750  220.120   1.985E-02   1.682E-03
   80   699.375  220.078   1.821E-02   1.359E-03
   81   700.000  219.881   1.739E-02   4.955E-03
   82   700.625  220.472   2.206E-02   3.197E-03
   83   701.250  220.632   2.331E-02   2.904E-03
   84   701.875  220.713   2.411E-02   2.974E-03
   85   702.500  221.466   3.064E-02   5.217E-03
   86   703.125  222.045   2.700E-02   2.633E-03
   87   703.750  223.130   4.733E-02   5.805E-03
   88   704.375  223.752   4.600E-02  -4.106E-03
   89   705.000  223.532   5.219E-02  -1.410E-02
   90   705.625  225.079   4.150E-02  -2.457E-03
   91   706.250  225.681   4.818E-02  -7.488E-03
   92   706.875  225.589   4.742E-02   2.432E-03
   93   707.500  226.757   4.702E-02  -5.956E-03
   94   708.125  227.073   5.791E-02   6.199E-03
   95   708.750  227.380   5.454E-02   8.430E-03
   96   709.375  228.856   4.811E-02   5.574E-03
   97   710.000  229.014   6.278E-02   3.360E-02
   98   710.625  229.858   4.892E-02  -1.129E-02
   99   711.250  230.864   5.211E-02  -1.363E-02
  100   711.875  230.900   4.912E-02  -1.038E-02
  101   712.500  233.953   5.857E-02  -1.584E-02
  102   713.125  233.189   7.448E-02  -1.081E-02
  103   713.750  233.486   6.493E-02   9.413E-03
  104   714.375  237.090   5.579E-02  -1.590E-03
  105   715.000  234.522   7.218E-02   1.558E-02
  106   715.625  238.090   7.136E-02   1.810E-02
  107   716.250  238.659   4.841E-02   3.373E-03
  108   716.875  235.688   9.341E-02  -2.349E-02
  109   717.500  238.938   5.428E-02   2.451E-03
  110   718.125  233.602   9.099E-02   9.414E-03
  111   718.750  225.657   6.358E-02   1.518E-02
  112   719.375  222.778   5.210E-02  -9.480E-04
  113   720.000  224.467   4.384E-02   1.520E-04
  114   720.625  227.173   5.280E-02  -4.703E-03
  115   721.250  231.121   5.632E-02   7.411E-03
  116   721.875  239.648   5.316E-02   1.583E-02
  117   722.500  244.920   6.782E-02   3.078E-02
  118   723.125  247.119   4.576E-02   1.319E-02
  119   723.750  244.263   5.982E-02   2.490E-02
  120   724.375  248.034   3.307E-02   5.904E-03
  121   725.000  247.311   7.877E-02   3.077E-03
  122   725.625  244.572   8.759E-02   8.005E-03
  123   726.250  248.050   3.232E-02   7.795E-03
  124   726.875  242.714   3.578E-02  -1.068E-03
  125   727.500  245.257   3.585E-02   1.351E-02
  126   728.125  244.167   4.663E-02   4.866E-03
  127   728.750  239.405   5.849E-02  -6.849E-03
  128   729.375  241.913   7.822E-02   3.293E-03
  129   730.000  238.405   1.182E-01   2.158E-02
  130   730.625  240.895   1.717E-01   1.201E-01
  131   731.250  240.801   6.468E-02  -6.624E-03
  132   731.875  240.812   5.162E-02  -1.169E-02
  133   732.500  244.948   4.041E-02   1.642E-02
  134   733.125  240.935   5.613E-02   1.009E-02
  135   733.750  244.504   3.567E-02  -3.942E-04
  136   734.375  243.278   5.602E-02   2.531E-02
  137   735.000  242.418   5.118E-02  -9.916E-03
  138   735.625  245.552   4.728E-02  -1.598E-02
  139   736.250  241.301   4.709E-02  -1.623E-03
  140   736.875  244.852   3.785E-02   1.055E-02
  141   737.500  243.445   5.489E-02   1.267E-02
  142   738.125  244.802   4.410E-02   6.560E-03
  143   738.750  246.608   4.198E-02   5.068E-03
  144   739.375  243.336   5.168E-02  -5.935E-04
  145   740.000  245.694   5.062E-02   9.409E-03
  146   740.625  238.911   8.978E-02   9.616E-03
  147   741.250  233.854   1.397E-01   4.897E-03
  148   741.875  237.866   1.923E-01  -9.772E-03
  149   742.500  245.709   7.925E-02  -3.219E-03
  150   743.125  251.880   4.525E-02  -2.866E-03
  151   743.750  248.019   9.727E-02  -4.636E-02
  152   744.375  250.099   8.009E-02  -1.779E-02
  153   745.000  249.644   4.752E-02  -2.398E-03
  154   745.625  252.096   5.654E-02  -1.301E-02
  155   746.250  255.914   3.233E-02   6.316E-03
  156   746.875  252.603   5.073E-02   3.439E-03
  157   747.500  256.778   4.358E-02   9.167E-03
  158   748.125  253.630   5.947E-02   2.663E-03
  159   748.750  255.598   5.591E-02   6.265E-03
  160   749.375  257.040   5.052E-02  -1.180E-02
  161   750.000  255.010   4.491E-02  -9.397E-03
  162   750.625  258.261   3.949E-02   1.153E-02
  163   751.250  256.082   5.885E-02   1.159E-02
  164   751.875  258.413   4.772E-02  -8.072E-04
  165   752.500  257.703   5.308E-02   1.417E-03
  166   753.125  258.014   5.380E-02   1.155E-02
  167   753.750  258.802   4.953E-02   8.176E-03
  168   754.375  255.476   7.656E-02   1.787E-02
  169   755.000  259.800   5.467E-02   1.067E-02
  170   755.625  260.164   5.027E-02  -6.816E-04
  171   756.250  261.606   4.486E-02   1.619E-02
  172   756.875  262.271   3.979E-02   5.296E-03
  173   757.500  261.402   5.403E-02   8.238E-03
  174   758.125  264.865   3.476E-02   1.550E-02
  175   758.750  264.093   4.671E-02   1.350E-02
  176   759.375  265.710   3.510E-02   1.080E-02
  177   760.000  265.344   3.883E-02   2.542E-03
  178   760.625  265.188   4.133E-02   7.219E-03
  179   761.250  266.644   2.986E-02   6.049E-03
  180   761.875  265.782   4.522E-02   1.262E-02
  181   762.500  267.299   2.310E-02   3.554E-03
  182   763.125  266.644   3.517E-02   1.149E-02
  183   763.750  267.202   2.500E-02   2.625E-03
  184   764.375  267.445   2.093E-02   1.209E-03
  185   765.000  267.221   2.454E-02   2.746E-03
  186   765.625  268.317   1.425E-02   2.074E-03
  187   766.250  267.778   1.851E-02   4.921E-03
  188   766.875  268.123   1.446E-02  -1.599E-04
  189   767.500  267.956   1.467E-02   1.601E-03
  190   768.125  267.793   1.704E-02   1.519E-03
  191   768.750  266.673   1.417E-02  -1.507E-03
  192   769.375  266.304   1.110E-02  -2.036E-03
  193   770.000  266.895   1.306E-02  -1.859E-03
  194   770.625  267.757   1.166E-02  -2.213E-03
  195   771.250  268.535   8.391E-03   2.790E-03
  196   771.875  269.076   6.608E-03   1.223E-03
  197   772.500  269.280   1.262E-02   7.182E-03
  198   773.125  269.380   5.956E-03   5.040E-04
  199   773.750  269.404   1.181E-02   5.069E-03
  200   774.375  269.075   6.043E-03   6.982E-04
  201   775.000  267.859   8.126E-03  -1.517E-03
  202   775.625  266.247   1.370E-02  -1.823E-03
  203   776.250  266.777   1.030E-02  -1.068E-03
  204   776.875  265.327   1.330E-02  -1.666E-03
  205   777.500  266.899   1.022E-02  -9.909E-04
  206   778.125  269.165   8.236E-03  -1.137E-03
  207   778.750  268.159   7.515E-03  -1.616E-03
  208   779.375  267.467   8.667E-03  -3.261E-03
  209   780.000  269.048   4.857E-03  -1.818E-03
  210   780.625  269.732   5.336E-03   5.267E-04
  211   781.250  269.982   7.850E-03   5.186E-03
  212   781.875  269.753   5.124E-03   5.381E-05
  213   782.500  269.847   5.672E-03   2.345E-03
  214   783.125  269.566   5.926E-03  -8.044E-04
  215   783.750  267.120   9.367E-03  -2.066E-03
  216   784.375  263.766   1.298E-02  -4.959E-04
  217   785.000  266.029   1.148E-02  -1.023E-03
  218   785.625  269.356   7.202E-03  -8.038E-04
  219   786.250  270.103   3.700E-03   8.858E-04
  220   786.875  270.199   3.049E-03  -4.254E-04
  221   787.500  270.362   2.470E-03   7.050E-04
  222   788.125  270.391   2.607E-03  -4.795E-04
  223   788.750  270.430   5.246E-03   4.020E-03
  224   789.375  270.476   3.298E-03  -7.154E-04
  225   790.000  270.443   8.357E-03   6.692E-03
  226   790.625  269.714   1.085E-02   1.072E-04
  227   791.250  264.538   5.889E-02   8.142E-03
  228   791.875  260.929   5.971E-02   1.074E-02
  229   792.500  265.745   2.633E-02   7.106E-03
  230   793.125  268.196   6.789E-03  -1.120E-03
  231   793.750  267.130   1.001E-02  -1.298E-03
  232   794.375  267.876   8.171E-03  -2.272E-03
  233   795.000  268.092   7.785E-03  -1.546E-03
  234   795.625  264.116   1.571E-02   9.514E-04
  235   796.250  264.665   1.501E-02   1.507E-03
  236   796.875  267.608   8.235E-03  -3.296E-03
  237   797.500  267.239   7.950E-03  -2.490E-03
  238   798.125  263.700   1.978E-02   4.317E-03
  239   798.750  261.885   2.288E-02   6.167E-03
  240   799.375  266.609   1.117E-02  -1.804E-03
  241   800.000  269.408   7.488E-03   6.701E-04
  242   800.625  270.133   8.790E-03   5.268E-03
  243   801.250  270.085   6.086E-03  -9.695E-05
  244   801.875  269.993   1.017E-02   6.447E-03
  245   802.500  268.977   6.990E-03  -9.549E-04
  246   803.125  266.287   1.244E-02  -1.951E-03
  247   803.750  267.116   1.001E-02  -1.541E-03
  248   804.375  269.463   5.260E-03  -1.755E-03
  249   805.000  270.222   6.306E-03   4.477E-04
  250   805.625  270.200   3.999E-03   1.718E-03
  251   806.250  269.804   4.573E-03  -1.248E-03
  252   806.875  270.283   1.063E-02   3.896E-03
  253   807.500  269.315   4.396E-03  -2.030E-03
  254   808.125  267.509   9.406E-03  -3.704E-03
  255   808.750  268.737   5.764E-03  -2.602E-03
  256   809.375  270.163   5.009E-03   5.139E-04
  257   810.000  270.684   3.868E-03   4.232E-04
  258   810.625  270.633   1.102E-02   9.633E-03
  259   811.250  270.631   4.252E-03   6.740E-04
  260   811.875  270.775   1.402E-02   1.223E-02
  261   812.500  270.567   4.112E-03   1.156E-03
  262   813.125  270.081   3.830E-03  -2.355E-03
  263   813.750  268.225   7.416E-03  -1.489E-03
  264   814.375  267.719   1.028E-02  -2.688E-03
  265   815.000  269.437   6.062E-03  -1.349E-03
  266   815.625  270.517   5.188E-03   1.560E-03
  267   816.250  270.790   5.093E-03   9.097E-04
  268   816.875  270.798   9.366E-03   8.057E-03
  269   817.500  270.870   4.581E-03   4.503E-04
  270   818.125  270.974   1.397E-02   1.220E-02
  271   818.750  270.912   5.970E-03   5.816E-04
  272   819.375  271.015   1.448E-02   1.238E-02
  273   820.000  270.990   5.714E-03   9.785E-04
  274   820.625  271.013   1.476E-02   1.279E-02
  275   821.250  271.055   4.785E-03   6.832E-04
  276   821.875  271.033   1.226E-02   1.075E-02
  277   822.500  271.055   5.733E-03   1.097E-03
  278   823.125  271.088   7.857E-03   5.949E-03
  279   823.750  271.118   5.468E-03   1.647E-03
  280   824.375  270.774   8.801E-03  -1.897E-03
  281   825.000  269.827   5.956E-03  -1.944E-03
  282   825.625  270.269   6.892E-03  -4.601E-03
  283   826.250  270.989   4.758E-03   1.734E-03
  284   826.875  270.241   6.877E-03  -3.756E-03
  285   827.500  268.869   7.429E-03  -4.226E-04
  286   828.125  269.529   6.657E-03  -2.488E-03
  287   828.750  270.934   5.866E-03   1.897E-03
  288   829.375  271.185   3.973E-03   1.153E-03
  289   830.000  271.265   4.774E-03   2.195E-03
  290   830.625  271.249   3.814E-03   1.243E-03
  291   831.250  271.309   4.607E-03   2.466E-03
  292   831.875  271.284   4.125E-03   2.192E-03
  293   832.500  271.307   4.760E-03   2.315E-03
  294   833.125  271.274   3.679E-03   1.745E-03
  295   833.750  271.318   7.352E-03  -1.138E-03
  296   834.375  271.257   2.907E-03   8.855E-04
  297   835.000  271.072   7.408E-03   7.889E-04
  298   835.625  270.843   4.870E-03  -2.378E-03
  299   836.250  271.128   5.500E-03   1.208E-03
  300   836.875  271.226   2.968E-03   6.860E-04
  301   837.500  271.231   4.101E-03   1.140E-03
  302   838.125  271.147   2.867E-03  -7.630E-04
  303   838.750  271.073   3.155E-03   1.142E-03
  304   839.375  269.788   6.875E-03  -3.658E-03
  305   840.000  268.641   9.216E-03  -3.204E-03
  306   840.625  269.923   6.638E-03  -3.865E-03
  307   841.250  270.645   5.241E-03  -1.296E-03
  308   841.875  270.302   9.525E-03  -2.435E-03
  309   842.500  270.628   4.839E-03  -1.209E-03
  310   843.125  270.852   4.547E-03  -3.916E-03
  311   843.750  270.841   2.877E-03  -1.547E-03
  312   844.375  270.746   2.916E-03  -1.905E-03
  313   845.000  270.714   4.600E-03  -1.762E-03
  314   845.625  270.600   3.569E-03  -2.220E-03
  315   846.250  270.612   3.096E-03  -1.188E-03
  316   846.875  270.572   5.152E-03  -4.405E-03
  317   847.500  270.626   2.069E-03  -6.874E-04
  318   848.125  270.602   6.048E-03  -5.244E-03
  319   848.750  270.062   3.625E-03  -2.001E-03
  320   849.375  268.353   1.073E-02  -7.738E-03
  321   850.000  268.829   5.964E-03  -1.773E-03
  322   850.625  270.310   8.436E-03  -5.594E-03
  323   851.250  270.454   3.433E-03   1.156E-03
  324   851.875  268.710   9.882E-03  -7.311E-03
  325   852.500  266.351   1.183E-02  -2.022E-03
  326   853.125  267.875   1.253E-02  -7.812E-03
  327   853.750  269.602   6.284E-03  -9.745E-04
  328   854.375  268.713   1.213E-02  -7.675E-03
  329   855.000  269.324   7.520E-03  -1.178E-03
  330   855.625  270.929   9.377E-03  -5.560E-03
  331   856.250  271.259   2.931E-03   2.033E-03
  332   856.875  271.334   5.074E-03   2.578E-03
  333   857.500  271.332   2.964E-03   2.116E-03
  334   858.125  271.201   9.671E-03  -3.654E-03
  335   858.750  271.117   2.678E-03   4.951E-04
  336   859.375  271.254   8.000E-03  -3.309E-03
  337   860.000  271.312   5.105E-03   2.196E-03
  338   860.625  271.424   4.438E-03   2.248E-03
  339   861.250  271.427   2.943E-03   2.125E-03
  340   861.875  271.440   6.645E-03   4.170E-03
  341   862.500  271.412   3.272E-03   2.895E-03
  342   863.125  271.421   4.454E-03   2.244E-03
  343   863.750  271.373   3.318E-03   2.942E-03
  344   864.375  270.987   1.137E-02  -5.412E-03
  345   865.000  269.945   5.943E-03  -2.094E-04
  346   865.625  269.968   9.500E-03  -6.781E-03
  347   866.250  271.049   2.179E-03   7.403E-04
  348   866.875  271.379   2.845E-03  -1.775E-03
  349   867.500  271.388   3.448E-03   3.143E-03
  350   868.125  271.371   3.135E-03  -2.643E-03
  351   868.750  271.394   3.377E-03   3.052E-03
  352   869.375  271.371   3.735E-03  -3.367E-03
  353   870.000  271.318   3.344E-03   2.904E-03
  354   870.625  270.329   8.155E-03  -6.989E-03
  355   871.250  269.136   6.427E-03  -4.922E-04
  356   871.875  270.282   8.350E-03  -7.193E-03
  357   872.500  271.305   3.403E-03   3.025E-03
  358   873.125  271.371   4.128E-03  -3.721E-03
  359   873.750  271.410   3.422E-03   3.023E-03
  360   874.375  271.392   3.607E-03  -3.224E-03
  361   875.000  271.417   3.430E-03   3.034E-03
  362   875.625  271.364   4.605E-03  -4.162E-03
  363   876.250  271.382   3.862E-03   3.425E-03
  364   876.875  271.371   4.253E-03  -3.821E-03
  365   877.500  271.226   3.758E-03   2.610E-03
  366   878.125  270.101   8.130E-03  -6.685E-03
  367   878.750  269.577   4.841E-03   2.764E-04
  368   879.375  270.780   1.186E-02  -5.711E-03
  369   880.000  271.350   3.728E-03   3.320E-03
  370   880.625  271.017   7.080E-03  -4.569E-03
  371   881.250  270.822   1.321E-03  -1.113E-04
  372   881.875  271.161   5.117E-03  -4.359E-03
  373   882.500  271.148   6.042E-03   3.298E-03
  374   883.125  270.542   7.976E-03  -6.629E-03
  375   883.750  269.909   5.097E-03   4.633E-04
  376   884.375  270.523   7.943E-03  -6.873E-03
  377   885.000  271.230   3.918E-03   3.481E-03
  378   885.625  271.265   4.478E-03  -3.967E-03
  379   886.250  270.973   1.726E-03   3.962E-04
  380   886.875  269.433   8.888E-03  -7.413E-03
  381   887.500  269.206   4.980E-03   3.857E-04
  382   888.125  270.323   8.405E-03  -7.123E-03
  383   888.750  270.456   4.412E-03   1.511E-03
  384   889.375  270.905   1.099E-02  -5.316E-03
  385   890.000  270.955   7.124E-03   3.112E-03
  386   890.625  270.970   8.764E-03  -4.738E-03
  387   891.250  270.860   2.623E-03   1.422E-03
  388   891.875  271.121   7.033E-03  -4.552E-03
  389   892.500  271.354   4.165E-03   3.724E-03
  390   893.125  271.413   9.569E-03   6.127E-03
  391   893.750  271.424   4.306E-03   3.559E-03
  392   894.375  271.446   9.302E-03   5.960E-03
  393   895.000  271.398   4.468E-03   3.886E-03
  394   895.625  271.290   2.982E-03  -1.735E-03
  395   896.250  271.229   4.620E-03   4.096E-03
  396   896.875  271.372   4.863E-03  -3.533E-03
  397   897.500  271.344   5.679E-03   3.755E-03
